> PKIKP at  1149.63 seconds at   132.00 degrees for a     33.0 km deep source in the iasp91 model with rayParam    1.873 s/deg.
    0.00    6338.0
    0.00    6336.0
    0.00    6334.7
    0.01    6333.3
    0.01    6330.7
    0.02    6325.4
    0.02    6320.1
    0.03    6314.8
    0.04    6304.1
    0.06    6293.5
    0.06    6290.0
    0.07    6280.2
    0.08    6270.5
    0.11    6251.0
    0.11    6249.2
    0.11    6247.4
    0.12    6243.8
    0.13    6236.5
    0.15    6222.6
    0.16    6208.5
    0.17    6207.2
    0.17    6206.0
    0.18    6193.2
    0.20    6180.3
    0.23    6161.0
    0.23    6157.3
    0.24    6153.7
    0.25    6142.0
    0.27    6130.2
    0.30    6111.0
    0.30    6108.8
    0.30    6106.6
    0.32    6094.8
    0.33    6088.8
    0.34    6082.8
    0.35    6072.0
    0.37    6061.0
    0.37    6059.9
    0.37    6058.8
    0.39    6046.8
    0.40    6040.7
    0.41    6034.6
    0.43    6022.9
    0.44    6011.0
    0.44    6010.6
    0.45    6010.2
    0.46    5998.0
    0.47    5991.8
    0.48    5985.6
    0.50    5973.3
    0.52    5961.0
    0.53    5957.4
    0.53    5953.8
    0.55    5946.5
    0.57    5932.6
    0.59    5918.6
    0.61    5911.0
    0.64    5890.3
    0.69    5861.7
    0.69    5861.0
    0.74    5832.7
    0.78    5811.0
    0.80    5803.3
    0.85    5773.4
    0.87    5761.0
    0.91    5743.1
    0.97    5712.3
    0.97    5711.0
    0.98    5708.9
    0.98    5706.8
    0.99    5702.6
    1.01    5694.1
    1.04    5677.6
    1.08    5661.0
    1.08    5657.9
    1.09    5654.9
    1.13    5635.0
    1.18    5615.0
    1.18    5611.0
    1.23    5588.6
    1.29    5566.0
    1.29    5563.8
    1.30    5561.5
    1.34    5540.8
    1.39    5520.0
    1.41    5512.0
    1.50    5473.0
    1.53    5462.5
    1.62    5425.1
    1.62    5424.3
    1.62    5423.6
    1.62    5422.1
    1.63    5419.0
    1.64    5416.0
    1.65    5413.0
    1.66    5406.9
    1.68    5400.7
    1.69    5394.5
    1.71    5388.3
    1.74    5375.9
    1.77    5363.5
    1.80    5351.2
    1.83    5338.8
    1.86    5326.4
    1.90    5314.0
    1.96    5289.3
    2.03    5264.5
    2.09    5239.8
    2.16    5215.0
    2.23    5190.3
    2.30    5165.5
    2.37    5138.2
    2.38    5135.7
    2.39    5133.3
    2.40    5128.3
    2.43    5118.4
    2.44    5116.0
    2.49    5098.3
    2.55    5078.1
    2.58    5066.5
    2.61    5057.7
    2.73    5017.8
    2.73    5017.0
    2.79    4997.5
    2.85    4977.2
    2.88    4967.5
    2.98    4937.1
    3.04    4918.0
    3.04    4917.0
    3.10    4896.6
    3.20    4868.5
    3.24    4856.6
    3.30    4836.4
    3.36    4819.0
    3.37    4816.1
    3.51    4776.1
    3.53    4769.5
    3.58    4756.0
    3.65    4735.7
    3.70    4720.0
    3.79    4695.9
    3.86    4675.8
    3.88    4670.5
    3.94    4655.6
    4.07    4621.0
    4.08    4616.0
    4.16    4596.0
    4.24    4575.9
    4.25    4571.5
    4.39    4536.5
    4.45    4522.0
    4.55    4496.6
    4.61    4482.6
    4.65    4472.5
    4.85    4423.0
    4.88    4417.8
    5.07    4373.5
    5.21    4339.5
    5.21    4339.4
    5.28    4324.0
    5.51    4274.5
    5.56    4261.9
    5.74    4225.0
    5.89    4193.1
    5.93    4184.8
    5.97    4175.5
    6.22    4126.0
    6.31    4108.5
    6.47    4076.5
    6.64    4044.1
    6.70    4032.8
    6.73    4027.0
    7.00    3977.5
    7.11    3957.9
    7.28    3928.0
    7.48    3892.6
    7.53    3883.7
    7.56    3878.5
    7.86    3829.0
    7.97    3810.4
    8.17    3779.5
    8.42    3739.0
    8.43    3737.7
    8.48    3730.0
    8.81    3680.5
    8.91    3665.8
    9.15    3631.0
    9.23    3619.7
    9.31    3608.4
    9.47    3585.7
    9.50    3581.3
    9.57    3571.7
    9.86    3531.7
   10.11    3498.2
   10.23    3482.0
   10.24    3480.4
   10.25    3478.9
   10.26    3475.8
   10.29    3469.5
   10.34    3457.0
   10.39    3444.4
   10.45    3431.7
   10.56    3406.6
   10.62    3394.0
   10.67    3381.3
   10.79    3356.3
   10.85    3343.7
   10.91    3331.0
   11.03    3306.0
   11.09    3293.4
   11.15    3280.7
   11.28    3255.6
   11.34    3243.0
   11.41    3230.3
   11.54    3205.3
   11.61    3192.7
   11.67    3180.0
   11.81    3155.0
   11.88    3142.3
   11.95    3129.7
   12.09    3104.6
   12.24    3079.4
   12.29    3070.4
   12.33    3063.9
   12.52    3032.3
   12.54    3029.0
   12.72    3000.5
   12.86    2978.7
   12.86    2978.6
   12.93    2968.6
   13.14    2936.6
   13.19    2928.4
   13.36    2904.3
   13.50    2883.5
   13.54    2878.0
   13.58    2871.9
   13.82    2839.3
   13.90    2827.7
   14.06    2806.4
   14.22    2784.8
   14.28    2777.4
   14.31    2773.5
   14.57    2740.2
   14.68    2727.0
   14.85    2706.8
   15.05    2682.7
   15.10    2676.7
   15.13    2673.1
   15.42    2639.2
   15.54    2626.4
   15.73    2605.0
   15.99    2576.9
   16.00    2576.0
   16.05    2570.7
   16.38    2536.0
   16.48    2525.7
   16.73    2501.1
   16.79    2494.7
   16.86    2488.3
   16.99    2475.4
   17.01    2472.9
   17.07    2467.4
   17.32    2444.4
   17.52    2425.0
   17.63    2415.6
   17.64    2414.4
   17.66    2413.1
   17.68    2410.5
   17.71    2408.0
   17.74    2405.4
   17.80    2400.3
   17.86    2395.2
   17.97    2385.0
   18.09    2374.7
   18.21    2364.4
   18.33    2354.0
   18.51    2339.2
   18.69    2324.4
   19.00    2299.3
   19.32    2274.0
   19.80    2236.9
   19.98    2223.7
   20.69    2173.4
   21.44    2123.1
   21.54    2116.0
   22.23    2072.7
   23.08    2022.4
   23.63    1991.3
   23.98    1972.1
   24.95    1921.7
   25.47    1896.6
   25.98    1871.4
   26.16    1863.0
   27.10    1821.1
   27.70    1795.9
   28.30    1770.7
   28.80    1750.9
   29.31    1731.1
   29.59    1720.4
   30.30    1695.2
   31.00    1670.1
   31.77    1644.9
   32.54    1619.8
   33.31    1595.9
   34.22    1569.4
   35.15    1544.3
   36.08    1519.1
   36.77    1502.3
   37.45    1485.5
   38.14    1468.8
   38.63    1457.6
   39.55    1438.0
   40.46    1418.4
   41.34    1401.6
   42.22    1384.9
   43.10    1368.1
   43.86    1355.5
   44.62    1342.9
   45.38    1330.3
   46.14    1317.8
   46.22    1316.6
   47.10    1304.3
   47.99    1292.0
   48.87    1279.7
   49.75    1267.4
   50.64    1257.4
   51.53    1247.3
   52.42    1237.2
   53.31    1227.2
   54.20    1217.1
   54.47    1215.9
   54.74    1214.7
   55.31    1212.3
   55.91    1209.9
   56.56    1207.5
   57.29    1205.1
   58.02    1202.7
   58.92    1200.3
   59.82    1197.9
   60.70    1196.9
   61.58    1195.8
   62.46    1194.8
   63.34    1193.8
   64.22    1192.8
   65.10    1191.8
   65.98    1190.8
   66.87    1191.8
   67.75    1192.8
   68.63    1193.8
   69.51    1194.8
   70.39    1195.8
   71.27    1196.9
   72.15    1197.9
   73.05    1200.3
   73.95    1202.7
   74.68    1205.1
   75.41    1207.5
   76.05    1209.9
   76.66    1212.3
   77.23    1214.7
   77.50    1215.9
   77.77    1217.1
   78.66    1227.2
   79.55    1237.2
   80.44    1247.3
   81.33    1257.4
   82.22    1267.4
   83.10    1279.7
   83.98    1292.0
   84.87    1304.3
   85.75    1316.6
   85.83    1317.8
   86.59    1330.3
   87.35    1342.9
   88.11    1355.5
   88.87    1368.1
   89.75    1384.9
   90.63    1401.6
   91.51    1418.4
   92.42    1438.0
   93.34    1457.6
   93.83    1468.8
   94.52    1485.5
   95.20    1502.3
   95.89    1519.1
   96.82    1544.3
   97.75    1569.4
   98.66    1595.9
   99.43    1619.8
  100.20    1644.9
  100.97    1670.1
  101.67    1695.2
  102.38    1720.4
  102.66    1731.1
  103.17    1750.9
  103.67    1770.7
  104.27    1795.9
  104.87    1821.1
  105.80    1863.0
  105.99    1871.4
  106.50    1896.6
  107.02    1921.7
  107.99    1972.1
  108.34    1991.3
  108.89    2022.4
  109.74    2072.7
  110.43    2116.0
  110.53    2123.1
  111.28    2173.4
  111.99    2223.7
  112.17    2236.9
  112.65    2274.0
  112.97    2299.3
  113.28    2324.4
  113.46    2339.2
  113.64    2354.0
  113.76    2364.4
  113.88    2374.7
  114.00    2385.0
  114.11    2395.2
  114.17    2400.3
  114.23    2405.4
  114.26    2408.0
  114.29    2410.5
  114.31    2413.1
  114.33    2414.4
  114.34    2415.6
  114.44    2425.0
  114.65    2444.4
  114.90    2467.4
  114.95    2472.9
  114.98    2475.4
  115.11    2488.3
  115.18    2494.7
  115.24    2501.1
  115.49    2525.7
  115.59    2536.0
  115.92    2570.7
  115.97    2576.0
  115.98    2576.9
  116.24    2605.0
  116.43    2626.4
  116.55    2639.2
  116.84    2673.1
  116.87    2676.7
  116.92    2682.7
  117.12    2706.8
  117.29    2727.0
  117.40    2740.2
  117.66    2773.5
  117.69    2777.4
  117.75    2784.8
  117.91    2806.4
  118.07    2827.7
  118.15    2839.3
  118.39    2871.9
  118.43    2878.0
  118.47    2883.5
  118.61    2904.3
  118.78    2928.4
  118.83    2936.6
  119.04    2968.6
  119.11    2978.6
  119.11    2978.7
  119.25    3000.5
  119.42    3029.0
  119.45    3032.3
  119.64    3063.9
  119.67    3070.4
  119.73    3079.4
  119.88    3104.6
  120.02    3129.7
  120.09    3142.3
  120.16    3155.0
  120.30    3180.0
  120.36    3192.7
  120.43    3205.3
  120.56    3230.3
  120.63    3243.0
  120.69    3255.6
  120.82    3280.7
  120.88    3293.4
  120.94    3306.0
  121.06    3331.0
  121.12    3343.7
  121.18    3356.3
  121.30    3381.3
  121.35    3394.0
  121.41    3406.6
  121.52    3431.7
  121.57    3444.4
  121.63    3457.0
  121.68    3469.5
  121.71    3475.8
  121.72    3478.9
  121.73    3480.4
  121.73    3482.0
  121.86    3498.2
  122.11    3531.7
  122.40    3571.7
  122.47    3581.3
  122.50    3585.7
  122.66    3608.4
  122.74    3619.7
  122.82    3631.0
  123.06    3665.8
  123.16    3680.5
  123.49    3730.0
  123.54    3737.7
  123.55    3739.0
  123.80    3779.5
  124.00    3810.4
  124.11    3829.0
  124.41    3878.5
  124.44    3883.7
  124.49    3892.6
  124.69    3928.0
  124.86    3957.9
  124.97    3977.5
  125.24    4027.0
  125.27    4032.8
  125.33    4044.1
  125.50    4076.5
  125.66    4108.5
  125.75    4126.0
  126.00    4175.5
  126.04    4184.8
  126.08    4193.1
  126.23    4225.0
  126.40    4261.9
  126.46    4274.5
  126.69    4324.0
  126.76    4339.4
  126.76    4339.5
  126.90    4373.5
  127.09    4417.8
  127.12    4423.0
  127.32    4472.5
  127.36    4482.6
  127.42    4496.6
  127.52    4522.0
  127.58    4536.5
  127.71    4571.5
  127.73    4575.9
  127.81    4596.0
  127.88    4616.0
  127.90    4621.0
  128.03    4655.6
  128.09    4670.5
  128.11    4675.8
  128.18    4695.9
  128.27    4720.0
  128.32    4735.7
  128.39    4756.0
  128.44    4769.5
  128.46    4776.1
  128.60    4816.1
  128.61    4819.0
  128.67    4836.4
  128.73    4856.6
  128.77    4868.5
  128.86    4896.6
  128.93    4917.0
  128.93    4918.0
  128.99    4937.1
  129.09    4967.5
  129.12    4977.2
  129.18    4997.5
  129.24    5017.0
  129.24    5017.8
  129.36    5057.7
  129.39    5066.5
  129.42    5078.1
  129.48    5098.3
  129.53    5116.0
  129.54    5118.4
  129.57    5128.3
  129.58    5133.3
  129.59    5135.7
  129.60    5138.2
  129.67    5165.5
  129.74    5190.3
  129.81    5215.0
  129.88    5239.8
  129.94    5264.5
  130.01    5289.3
  130.07    5314.0
  130.11    5326.4
  130.14    5338.8
  130.17    5351.2
  130.20    5363.5
  130.23    5375.9
  130.26    5388.3
  130.28    5394.5
  130.29    5400.7
  130.31    5406.9
  130.32    5413.0
  130.33    5416.0
  130.34    5419.0
  130.35    5422.1
  130.35    5423.6
  130.35    5424.3
  130.35    5425.1
  130.44    5462.5
  130.47    5473.0
  130.56    5512.0
  130.58    5520.0
  130.63    5540.8
  130.67    5561.5
  130.68    5563.8
  130.68    5566.0
  130.73    5588.6
  130.78    5611.0
  130.79    5615.0
  130.84    5635.0
  130.88    5654.9
  130.89    5657.9
  130.89    5661.0
  130.93    5677.6
  130.96    5694.1
  130.98    5702.6
  130.99    5706.8
  130.99    5708.9
  131.00    5711.0
  131.00    5712.3
  131.06    5743.1
  131.10    5761.0
  131.12    5773.4
  131.17    5803.3
  131.19    5811.0
  131.23    5832.7
  131.28    5861.0
  131.28    5861.7
  131.33    5890.3
  131.36    5911.0
  131.38    5918.6
  131.40    5932.6
  131.42    5946.5
  131.44    5953.8
  131.44    5957.4
  131.45    5961.0
  131.47    5973.3
  131.49    5985.6
  131.50    5991.8
  131.51    5998.0
  131.52    6010.2
  131.53    6010.6
  131.53    6011.0
  131.54    6022.9
  131.56    6034.6
  131.57    6040.7
  131.58    6046.8
  131.60    6058.8
  131.60    6059.9
  131.60    6061.0
  131.62    6072.0
  131.63    6082.8
  131.64    6088.8
  131.65    6094.8
  131.67    6106.6
  131.67    6108.8
  131.67    6111.0
  131.70    6130.2
  131.72    6142.0
  131.73    6153.7
  131.74    6157.3
  131.74    6161.0
  131.77    6180.3
  131.79    6193.2
  131.80    6206.0
  131.80    6207.2
  131.81    6208.5
  131.82    6222.6
  131.84    6236.5
  131.85    6243.8
  131.86    6247.4
  131.86    6249.2
  131.86    6251.0
  131.89    6270.5
  131.90    6280.2
  131.91    6290.0
  131.91    6293.5
  131.93    6304.1
  131.94    6314.8
  131.95    6320.1
  131.95    6325.4
  131.96    6330.7
  131.96    6333.3
  131.97    6334.7
  131.97    6336.0
  131.97    6338.0
  131.98    6343.5
  131.98    6347.2
  131.98    6349.1
  131.98    6350.1
  131.98    6351.0
  131.99    6356.0
  131.99    6361.0
  132.00    6366.0
  132.00    6368.5
  132.00    6369.7
  132.00    6371.0
  132.00    6371.0
