> PKiKP at  1150.95 seconds at   132.00 degrees for a     33.0 km deep source in the iasp91 model with rayParam    2.023 s/deg.
    0.00    6338.0
    0.00    6336.0
    0.00    6334.7
    0.01    6333.3
    0.01    6330.7
    0.02    6325.4
    0.02    6320.1
    0.03    6314.8
    0.05    6304.1
    0.06    6293.5
    0.06    6290.0
    0.08    6280.2
    0.09    6270.5
    0.12    6251.0
    0.12    6249.2
    0.12    6247.4
    0.13    6243.8
    0.14    6236.5
    0.16    6222.6
    0.18    6208.5
    0.18    6207.2
    0.18    6206.0
    0.20    6193.2
    0.22    6180.3
    0.25    6161.0
    0.25    6157.3
    0.26    6153.7
    0.27    6142.0
    0.29    6130.2
    0.32    6111.0
    0.32    6108.8
    0.33    6106.6
    0.35    6094.8
    0.36    6088.8
    0.36    6082.8
    0.38    6072.0
    0.40    6061.0
    0.40    6059.9
    0.40    6058.8
    0.42    6046.8
    0.43    6040.7
    0.44    6034.6
    0.46    6022.9
    0.48    6011.0
    0.48    6010.6
    0.48    6010.2
    0.50    5998.0
    0.51    5991.8
    0.52    5985.6
    0.54    5973.3
    0.56    5961.0
    0.57    5957.4
    0.58    5953.8
    0.59    5946.5
    0.62    5932.6
    0.64    5918.6
    0.65    5911.0
    0.69    5890.3
    0.75    5861.7
    0.75    5861.0
    0.80    5832.7
    0.85    5811.0
    0.86    5803.3
    0.92    5773.4
    0.95    5761.0
    0.98    5743.1
    1.05    5712.3
    1.05    5711.0
    1.06    5708.9
    1.06    5706.8
    1.07    5702.6
    1.09    5694.1
    1.13    5677.6
    1.17    5661.0
    1.17    5657.9
    1.18    5654.9
    1.23    5635.0
    1.27    5615.0
    1.28    5611.0
    1.34    5588.6
    1.39    5566.0
    1.40    5563.8
    1.40    5561.5
    1.45    5540.8
    1.51    5520.0
    1.53    5512.0
    1.63    5473.0
    1.65    5462.5
    1.75    5425.1
    1.75    5424.3
    1.76    5423.6
    1.76    5422.1
    1.77    5419.0
    1.78    5416.0
    1.78    5413.0
    1.80    5406.9
    1.82    5400.7
    1.83    5394.5
    1.85    5388.3
    1.88    5375.9
    1.92    5363.5
    1.95    5351.2
    1.99    5338.8
    2.02    5326.4
    2.05    5314.0
    2.12    5289.3
    2.20    5264.5
    2.27    5239.8
    2.34    5215.0
    2.41    5190.3
    2.49    5165.5
    2.57    5138.2
    2.58    5135.7
    2.59    5133.3
    2.60    5128.3
    2.63    5118.4
    2.64    5116.0
    2.70    5098.3
    2.76    5078.1
    2.80    5066.5
    2.83    5057.7
    2.96    5017.8
    2.96    5017.0
    3.02    4997.5
    3.09    4977.2
    3.12    4967.5
    3.23    4937.1
    3.29    4918.0
    3.30    4917.0
    3.37    4896.6
    3.47    4868.5
    3.51    4856.6
    3.58    4836.4
    3.65    4819.0
    3.66    4816.1
    3.81    4776.1
    3.83    4769.5
    3.88    4756.0
    3.96    4735.7
    4.02    4720.0
    4.11    4695.9
    4.19    4675.8
    4.21    4670.5
    4.27    4655.6
    4.41    4621.0
    4.43    4616.0
    4.52    4596.0
    4.60    4575.9
    4.62    4571.5
    4.77    4536.5
    4.83    4522.0
    4.94    4496.6
    5.00    4482.6
    5.05    4472.5
    5.27    4423.0
    5.30    4417.8
    5.50    4373.5
    5.66    4339.5
    5.66    4339.4
    5.74    4324.0
    5.98    4274.5
    6.05    4261.9
    6.23    4225.0
    6.40    4193.1
    6.44    4184.8
    6.49    4175.5
    6.76    4126.0
    6.86    4108.5
    7.04    4076.5
    7.22    4044.1
    7.29    4032.8
    7.32    4027.0
    7.62    3977.5
    7.73    3957.9
    7.92    3928.0
    8.14    3892.6
    8.20    3883.7
    8.23    3878.5
    8.56    3829.0
    8.68    3810.4
    8.89    3779.5
    9.17    3739.0
    9.18    3737.7
    9.24    3730.0
    9.60    3680.5
    9.70    3665.8
    9.97    3631.0
   10.05    3619.7
   10.14    3608.4
   10.32    3585.7
   10.35    3581.3
   10.43    3571.7
   10.75    3531.7
   11.03    3498.2
   11.16    3482.0
   11.17    3480.4
   11.18    3478.9
   11.19    3475.8
   11.22    3469.5
   11.28    3457.0
   11.34    3444.4
   11.40    3431.7
   11.52    3406.6
   11.58    3394.0
   11.64    3381.3
   11.77    3356.3
   11.83    3343.7
   11.90    3331.0
   12.03    3306.0
   12.09    3293.4
   12.16    3280.7
   12.30    3255.6
   12.37    3243.0
   12.44    3230.3
   12.58    3205.3
   12.65    3192.7
   12.73    3180.0
   12.88    3155.0
   12.95    3142.3
   13.03    3129.7
   13.19    3104.6
   13.35    3079.4
   13.40    3070.4
   13.45    3063.9
   13.65    3032.3
   13.68    3029.0
   13.87    3000.5
   14.02    2978.7
   14.02    2978.6
   14.09    2968.6
   14.32    2936.6
   14.38    2928.4
   14.56    2904.3
   14.72    2883.5
   14.76    2878.0
   14.81    2871.9
   15.06    2839.3
   15.16    2827.7
   15.33    2806.4
   15.51    2784.8
   15.57    2777.4
   15.61    2773.5
   15.89    2740.2
   16.01    2727.0
   16.19    2706.8
   16.41    2682.7
   16.47    2676.7
   16.50    2673.1
   16.82    2639.2
   16.95    2626.4
   17.16    2605.0
   17.44    2576.9
   17.45    2576.0
   17.51    2570.7
   17.87    2536.0
   17.98    2525.7
   18.25    2501.1
   18.32    2494.7
   18.39    2488.3
   18.54    2475.4
   18.57    2472.9
   18.63    2467.4
   18.90    2444.4
   19.13    2425.0
   19.24    2415.6
   19.26    2414.4
   19.27    2413.1
   19.30    2410.5
   19.34    2408.0
   19.37    2405.4
   19.43    2400.3
   19.49    2395.2
   19.62    2385.0
   19.75    2374.7
   19.88    2364.4
   20.02    2354.0
   20.21    2339.2
   20.41    2324.4
   20.75    2299.3
   21.10    2274.0
   21.64    2236.9
   21.84    2223.7
   22.62    2173.4
   23.45    2123.1
   23.57    2116.0
   24.34    2072.7
   25.28    2022.4
   25.90    1991.3
   26.29    1972.1
   26.83    1946.9
   27.37    1921.7
   27.95    1896.6
   28.54    1871.4
   28.74    1863.0
   29.27    1842.0
   29.79    1821.1
   30.47    1795.9
   31.15    1770.7
   31.73    1750.9
   32.31    1731.1
   32.63    1720.4
   33.44    1695.2
   34.25    1670.1
   35.14    1644.9
   36.02    1619.8
   36.93    1595.9
   37.46    1582.7
   37.99    1569.4
   38.72    1552.6
   39.46    1535.9
   40.19    1519.1
   41.01    1502.3
   41.84    1485.5
   42.67    1468.8
   43.26    1457.6
   44.01    1444.6
   44.76    1431.5
   45.52    1418.4
   46.35    1405.8
   47.18    1393.3
   48.02    1380.7
   48.85    1368.1
   49.66    1358.0
   50.47    1348.0
   51.28    1337.9
   52.09    1327.8
   52.90    1317.8
   53.00    1316.6
   53.85    1308.4
   54.70    1300.2
   55.55    1292.0
   56.40    1283.8
   57.26    1275.6
   58.11    1267.4
   59.09    1261.1
   60.08    1254.8
   61.06    1248.6
   62.05    1242.3
   63.03    1236.0
   64.01    1229.7
   65.00    1223.4
   65.98    1217.1
   66.97    1223.4
   67.95    1229.7
   68.94    1236.0
   69.92    1242.3
   70.91    1248.6
   71.89    1254.8
   72.87    1261.1
   73.86    1267.4
   74.71    1275.6
   75.56    1283.8
   76.41    1292.0
   77.27    1300.2
   78.12    1308.4
   78.97    1316.6
   79.07    1317.8
   79.88    1327.8
   80.69    1337.9
   81.50    1348.0
   82.31    1358.0
   83.12    1368.1
   83.95    1380.7
   84.78    1393.3
   85.62    1405.8
   86.45    1418.4
   87.20    1431.5
   87.95    1444.6
   88.70    1457.6
   89.30    1468.8
   90.13    1485.5
   90.95    1502.3
   91.78    1519.1
   92.51    1535.9
   93.24    1552.6
   93.98    1569.4
   94.51    1582.7
   95.04    1595.9
   95.94    1619.8
   96.83    1644.9
   97.72    1670.1
   98.53    1695.2
   99.34    1720.4
   99.66    1731.1
  100.24    1750.9
  100.81    1770.7
  101.49    1795.9
  102.17    1821.1
  102.70    1842.0
  103.23    1863.0
  103.43    1871.4
  104.01    1896.6
  104.59    1921.7
  105.14    1946.9
  105.68    1972.1
  106.07    1991.3
  106.69    2022.4
  107.63    2072.7
  108.40    2116.0
  108.52    2123.1
  109.35    2173.4
  110.13    2223.7
  110.33    2236.9
  110.86    2274.0
  111.22    2299.3
  111.56    2324.4
  111.76    2339.2
  111.95    2354.0
  112.08    2364.4
  112.22    2374.7
  112.35    2385.0
  112.47    2395.2
  112.54    2400.3
  112.60    2405.4
  112.63    2408.0
  112.66    2410.5
  112.69    2413.1
  112.71    2414.4
  112.72    2415.6
  112.84    2425.0
  113.07    2444.4
  113.34    2467.4
  113.40    2472.9
  113.43    2475.4
  113.57    2488.3
  113.65    2494.7
  113.72    2501.1
  113.99    2525.7
  114.10    2536.0
  114.46    2570.7
  114.52    2576.0
  114.53    2576.9
  114.81    2605.0
  115.02    2626.4
  115.15    2639.2
  115.47    2673.1
  115.50    2676.7
  115.56    2682.7
  115.78    2706.8
  115.96    2727.0
  116.07    2740.2
  116.36    2773.5
  116.39    2777.4
  116.46    2784.8
  116.64    2806.4
  116.81    2827.7
  116.90    2839.3
  117.16    2871.9
  117.21    2878.0
  117.25    2883.5
  117.40    2904.3
  117.58    2928.4
  117.64    2936.6
  117.87    2968.6
  117.94    2978.6
  117.94    2978.7
  118.10    3000.5
  118.29    3029.0
  118.31    3032.3
  118.52    3063.9
  118.56    3070.4
  118.62    3079.4
  118.78    3104.6
  118.94    3129.7
  119.01    3142.3
  119.09    3155.0
  119.24    3180.0
  119.31    3192.7
  119.39    3205.3
  119.53    3230.3
  119.60    3243.0
  119.67    3255.6
  119.81    3280.7
  119.87    3293.4
  119.94    3306.0
  120.07    3331.0
  120.14    3343.7
  120.20    3356.3
  120.33    3381.3
  120.39    3394.0
  120.45    3406.6
  120.57    3431.7
  120.63    3444.4
  120.69    3457.0
  120.75    3469.5
  120.78    3475.8
  120.79    3478.9
  120.80    3480.4
  120.80    3482.0
  120.94    3498.2
  121.22    3531.7
  121.54    3571.7
  121.61    3581.3
  121.65    3585.7
  121.82    3608.4
  121.91    3619.7
  122.00    3631.0
  122.26    3665.8
  122.37    3680.5
  122.73    3730.0
  122.78    3737.7
  122.79    3739.0
  123.08    3779.5
  123.29    3810.4
  123.41    3829.0
  123.73    3878.5
  123.77    3883.7
  123.83    3892.6
  124.05    3928.0
  124.23    3957.9
  124.35    3977.5
  124.64    4027.0
  124.68    4032.8
  124.74    4044.1
  124.93    4076.5
  125.11    4108.5
  125.21    4126.0
  125.47    4175.5
  125.52    4184.8
  125.57    4193.1
  125.73    4225.0
  125.92    4261.9
  125.98    4274.5
  126.23    4324.0
  126.30    4339.4
  126.30    4339.5
  126.46    4373.5
  126.67    4417.8
  126.70    4423.0
  126.92    4472.5
  126.96    4482.6
  127.03    4496.6
  127.14    4522.0
  127.20    4536.5
  127.35    4571.5
  127.37    4575.9
  127.45    4596.0
  127.53    4616.0
  127.55    4621.0
  127.69    4655.6
  127.75    4670.5
  127.77    4675.8
  127.85    4695.9
  127.95    4720.0
  128.01    4735.7
  128.09    4756.0
  128.14    4769.5
  128.16    4776.1
  128.31    4816.1
  128.32    4819.0
  128.38    4836.4
  128.46    4856.6
  128.50    4868.5
  128.60    4896.6
  128.67    4917.0
  128.67    4918.0
  128.74    4937.1
  128.84    4967.5
  128.88    4977.2
  128.94    4997.5
  129.01    5017.0
  129.01    5017.8
  129.14    5057.7
  129.17    5066.5
  129.21    5078.1
  129.27    5098.3
  129.33    5116.0
  129.33    5118.4
  129.36    5128.3
  129.38    5133.3
  129.39    5135.7
  129.39    5138.2
  129.48    5165.5
  129.55    5190.3
  129.63    5215.0
  129.70    5239.8
  129.77    5264.5
  129.84    5289.3
  129.91    5314.0
  129.95    5326.4
  129.98    5338.8
  130.02    5351.2
  130.05    5363.5
  130.08    5375.9
  130.12    5388.3
  130.13    5394.5
  130.15    5400.7
  130.17    5406.9
  130.18    5413.0
  130.19    5416.0
  130.20    5419.0
  130.21    5422.1
  130.21    5423.6
  130.21    5424.3
  130.22    5425.1
  130.31    5462.5
  130.34    5473.0
  130.44    5512.0
  130.46    5520.0
  130.51    5540.8
  130.56    5561.5
  130.57    5563.8
  130.57    5566.0
  130.63    5588.6
  130.68    5611.0
  130.69    5615.0
  130.74    5635.0
  130.79    5654.9
  130.79    5657.9
  130.80    5661.0
  130.84    5677.6
  130.88    5694.1
  130.90    5702.6
  130.91    5706.8
  130.91    5708.9
  130.92    5711.0
  130.92    5712.3
  130.98    5743.1
  131.02    5761.0
  131.05    5773.4
  131.11    5803.3
  131.12    5811.0
  131.16    5832.7
  131.22    5861.0
  131.22    5861.7
  131.27    5890.3
  131.31    5911.0
  131.33    5918.6
  131.35    5932.6
  131.38    5946.5
  131.39    5953.8
  131.40    5957.4
  131.40    5961.0
  131.42    5973.3
  131.44    5985.6
  131.45    5991.8
  131.46    5998.0
  131.49    6010.2
  131.49    6010.6
  131.49    6011.0
  131.51    6022.9
  131.53    6034.6
  131.54    6040.7
  131.54    6046.8
  131.56    6058.8
  131.57    6059.9
  131.57    6061.0
  131.58    6072.0
  131.60    6082.8
  131.61    6088.8
  131.62    6094.8
  131.64    6106.6
  131.64    6108.8
  131.65    6111.0
  131.67    6130.2
  131.69    6142.0
  131.71    6153.7
  131.71    6157.3
  131.72    6161.0
  131.75    6180.3
  131.77    6193.2
  131.79    6206.0
  131.79    6207.2
  131.79    6208.5
  131.81    6222.6
  131.83    6236.5
  131.84    6243.8
  131.84    6247.4
  131.85    6249.2
  131.85    6251.0
  131.88    6270.5
  131.89    6280.2
  131.90    6290.0
  131.91    6293.5
  131.92    6304.1
  131.94    6314.8
  131.94    6320.1
  131.95    6325.4
  131.96    6330.7
  131.96    6333.3
  131.96    6334.7
  131.96    6336.0
  131.97    6338.0
  131.97    6343.5
  131.98    6347.2
  131.98    6349.1
  131.98    6350.1
  131.98    6351.0
  131.99    6356.0
  131.99    6361.0
  132.00    6366.0
  132.00    6368.5
  132.00    6369.7
  132.00    6371.0
  132.00    6371.0
