> SKP at  1352.63 seconds at   132.00 degrees for a     33.0 km deep source in the iasp91 model with rayParam    3.490 s/deg.
    0.00    6338.0
    0.00    6336.0
    0.00    6334.7
    0.01    6333.3
    0.01    6330.7
    0.02    6325.3
    0.03    6314.6
    0.04    6304.1
    0.06    6293.5
    0.07    6281.9
    0.09    6270.2
    0.11    6253.3
    0.11    6251.0
    0.13    6239.7
    0.14    6228.4
    0.15    6221.5
    0.17    6206.0
    0.19    6197.6
    0.20    6189.1
    0.22    6175.1
    0.24    6161.0
    0.25    6147.3
    0.27    6135.3
    0.29    6123.2
    0.31    6111.0
    0.33    6097.3
    0.34    6085.3
    0.36    6073.2
    0.38    6061.0
    0.41    6043.4
    0.43    6027.3
    0.44    6019.8
    0.45    6011.0
    0.46    6005.4
    0.49    5990.7
    0.51    5975.9
    0.53    5961.0
    0.54    5956.6
    0.55    5952.1
    0.55    5947.7
    0.56    5943.2
    0.58    5935.3
    0.59    5927.2
    0.60    5919.1
    0.61    5915.1
    0.62    5911.0
    0.63    5900.8
    0.65    5890.6
    0.69    5869.8
    0.70    5861.0
    0.72    5850.9
    0.74    5843.3
    0.74    5843.3
    0.74    5842.9
    0.74    5842.6
    0.74    5841.9
    0.74    5840.5
    0.74    5839.1
    0.75    5837.8
    0.75    5837.4
    0.75    5837.1
    0.75    5836.4
    0.75    5835.1
    0.76    5832.5
    0.77    5827.2
    0.80    5811.0
    0.83    5793.3
    0.86    5777.2
    0.88    5766.6
    0.89    5761.0
    0.89    5760.0
    0.92    5748.3
    0.92    5743.9
    0.95    5729.8
    0.96    5727.5
    0.99    5711.0
    1.00    5706.6
    1.01    5702.1
    1.03    5693.2
    1.06    5679.4
    1.06    5677.2
    1.08    5669.1
    1.10    5661.0
    1.14    5642.3
    1.18    5623.4
    1.21    5611.0
    1.23    5604.7
    1.24    5598.4
    1.26    5592.1
    1.27    5585.7
    1.30    5573.6
    1.31    5567.6
    1.33    5561.5
    1.36    5548.9
    1.39    5536.3
    1.45    5512.0
    1.51    5486.8
    1.57    5462.5
    1.63    5437.3
    1.69    5413.0
    1.76    5387.8
    1.82    5363.5
    1.89    5338.3
    1.95    5314.0
    2.02    5288.9
    2.09    5264.5
    2.16    5239.3
    2.19    5227.2
    2.23    5215.0
    2.30    5190.3
    2.37    5165.5
    2.43    5143.8
    2.43    5143.0
    2.44    5142.2
    2.44    5140.6
    2.45    5137.4
    2.46    5134.2
    2.47    5131.0
    2.49    5124.6
    2.51    5118.1
    2.51    5116.0
    2.53    5110.0
    2.55    5104.1
    2.58    5092.1
    2.59    5088.9
    2.60    5085.7
    2.62    5079.3
    2.66    5066.5
    2.74    5041.8
    2.81    5017.0
    2.82    5014.8
    2.83    5012.6
    2.90    4990.1
    2.97    4967.5
    3.08    4933.5
    3.10    4925.8
    3.13    4918.0
    3.21    4893.3
    3.29    4868.5
    3.43    4828.2
    3.45    4823.6
    3.46    4819.0
    3.55    4794.3
    3.59    4781.9
    3.63    4769.5
    3.71    4747.0
    3.80    4724.4
    3.80    4722.2
    3.81    4720.0
    3.90    4695.3
    3.95    4682.9
    3.99    4670.5
    4.08    4646.6
    4.17    4622.5
    4.18    4621.8
    4.18    4621.0
    4.28    4596.3
    4.32    4583.9
    4.37    4571.5
    4.47    4547.1
    4.57    4522.6
    4.57    4522.3
    4.57    4522.0
    4.62    4509.7
    4.67    4497.3
    4.72    4484.9
    4.77    4472.5
    4.87    4447.8
    4.98    4423.0
    5.08    4399.4
    5.11    4393.0
    5.14    4386.5
    5.19    4373.5
    5.30    4348.8
    5.41    4324.0
    5.47    4310.6
    5.64    4274.5
    5.87    4225.0
    5.87    4223.8
    6.11    4175.5
    6.29    4139.0
    6.35    4126.0
    6.61    4076.5
    6.71    4056.2
    6.87    4027.0
    7.13    3977.5
    7.15    3975.4
    7.18    3969.4
    7.21    3963.5
    7.28    3951.7
    7.34    3939.9
    7.41    3928.0
    7.55    3903.3
    7.62    3890.9
    7.70    3878.5
    7.84    3853.8
    7.99    3829.0
    8.16    3801.0
    8.18    3798.3
    8.19    3795.7
    8.23    3790.3
    8.29    3779.5
    8.43    3758.6
    8.56    3737.7
    8.58    3733.8
    8.61    3730.0
    8.77    3705.3
    8.93    3680.5
    8.97    3675.6
    9.12    3653.3
    9.27    3631.0
    9.29    3628.5
    9.30    3626.0
    9.46    3603.7
    9.62    3581.3
    9.68    3572.7
    9.98    3531.7
   10.06    3520.6
   10.35    3482.0
   10.36    3480.4
   10.37    3478.9
   10.40    3475.8
   10.45    3469.5
   10.56    3457.0
   10.67    3444.4
   10.79    3431.7
   11.01    3406.6
   11.13    3394.0
   11.25    3381.3
   11.48    3356.3
   11.61    3343.7
   11.73    3331.0
   11.98    3306.0
   12.11    3293.4
   12.24    3280.7
   12.50    3255.6
   12.63    3243.0
   12.77    3230.3
   13.04    3205.3
   13.19    3192.7
   13.33    3180.0
   13.62    3155.0
   13.77    3142.3
   13.92    3129.7
   14.22    3104.6
   14.54    3079.4
   14.65    3070.4
   14.74    3063.9
   15.15    3032.3
   15.19    3029.0
   15.58    3000.5
   15.88    2978.7
   15.89    2978.6
   16.03    2968.6
   16.49    2936.6
   16.61    2928.4
   16.98    2904.3
   17.30    2883.5
   17.39    2878.0
   17.48    2871.9
   18.01    2839.3
   18.21    2827.7
   18.57    2806.4
   18.94    2784.8
   19.08    2777.4
   19.15    2773.5
   19.75    2740.2
   20.00    2727.0
   20.39    2706.8
   20.87    2682.7
   20.99    2676.7
   21.06    2673.1
   21.77    2639.2
   22.05    2626.4
   22.52    2605.0
   23.16    2576.9
   23.18    2576.0
   23.30    2570.7
   24.14    2536.0
   24.40    2525.7
   25.03    2501.1
   25.20    2494.7
   25.37    2488.3
   25.72    2475.4
   25.78    2472.9
   25.94    2467.4
   26.58    2444.4
   27.15    2425.0
   27.43    2415.6
   27.47    2414.4
   27.51    2413.1
   27.58    2410.5
   27.66    2408.0
   27.74    2405.4
   27.90    2400.3
   28.06    2395.2
   28.38    2385.0
   28.71    2374.7
   29.05    2364.4
   29.40    2354.0
   29.91    2339.2
   30.43    2324.4
   31.36    2299.3
   32.35    2274.0
   33.13    2255.5
   33.91    2236.9
   34.50    2223.7
   35.33    2206.9
   36.15    2190.2
   36.98    2173.4
   37.95    2156.6
   38.92    2139.8
   39.89    2123.1
   40.35    2116.0
   41.13    2105.2
   41.92    2094.4
   42.71    2083.6
   43.50    2072.7
   44.49    2062.7
   45.48    2052.6
   46.47    2042.5
   47.46    2032.5
   48.45    2022.4
   49.44    2016.2
   50.44    2010.0
   51.43    2003.7
   52.42    1997.5
   53.42    1991.3
   54.32    1989.3
   55.22    1987.4
   56.12    1985.4
   57.02    1983.4
   57.92    1981.4
   58.81    1979.5
   59.71    1977.5
   60.61    1979.5
   61.51    1981.4
   62.41    1983.4
   63.31    1985.4
   64.21    1987.4
   65.11    1989.3
   66.01    1991.3
   67.01    1997.5
   68.00    2003.7
   68.99    2010.0
   69.99    2016.2
   70.98    2022.4
   71.97    2032.5
   72.96    2042.5
   73.95    2052.6
   74.94    2062.7
   75.93    2072.7
   76.72    2083.6
   77.51    2094.4
   78.30    2105.2
   79.08    2116.0
   79.54    2123.1
   80.51    2139.8
   81.48    2156.6
   82.45    2173.4
   83.28    2190.2
   84.10    2206.9
   84.92    2223.7
   85.52    2236.9
   86.30    2255.5
   87.08    2274.0
   88.07    2299.3
   89.00    2324.4
   89.52    2339.2
   90.03    2354.0
   90.38    2364.4
   90.72    2374.7
   91.05    2385.0
   91.37    2395.2
   91.53    2400.3
   91.69    2405.4
   91.77    2408.0
   91.85    2410.5
   91.92    2413.1
   91.96    2414.4
   92.00    2415.6
   92.28    2425.0
   92.85    2444.4
   93.49    2467.4
   93.65    2472.9
   93.71    2475.4
   94.06    2488.3
   94.23    2494.7
   94.40    2501.1
   95.03    2525.7
   95.29    2536.0
   96.12    2570.7
   96.25    2576.0
   96.27    2576.9
   96.91    2605.0
   97.38    2626.4
   97.66    2639.2
   98.37    2673.1
   98.44    2676.7
   98.56    2682.7
   99.04    2706.8
   99.43    2727.0
   99.68    2740.2
  100.28    2773.5
  100.35    2777.4
  100.49    2784.8
  100.86    2806.4
  101.22    2827.7
  101.42    2839.3
  101.94    2871.9
  102.04    2878.0
  102.13    2883.5
  102.45    2904.3
  102.81    2928.4
  102.94    2936.6
  103.40    2968.6
  103.54    2978.6
  103.54    2978.7
  103.85    3000.5
  104.24    3029.0
  104.28    3032.3
  104.69    3063.9
  104.78    3070.4
  104.89    3079.4
  105.21    3104.6
  105.51    3129.7
  105.66    3142.3
  105.81    3155.0
  106.10    3180.0
  106.24    3192.7
  106.38    3205.3
  106.66    3230.3
  106.80    3243.0
  106.93    3255.6
  107.19    3280.7
  107.32    3293.4
  107.45    3306.0
  107.70    3331.0
  107.82    3343.7
  107.95    3356.3
  108.18    3381.3
  108.30    3394.0
  108.42    3406.6
  108.64    3431.7
  108.76    3444.4
  108.87    3457.0
  108.98    3469.5
  109.03    3475.8
  109.06    3478.9
  109.07    3480.4
  109.08    3482.0
  109.42    3498.2
  110.10    3531.7
  110.88    3571.7
  111.06    3581.3
  111.14    3585.7
  111.56    3608.4
  111.77    3619.7
  111.97    3631.0
  112.59    3665.8
  112.84    3680.5
  113.67    3730.0
  113.79    3737.7
  113.81    3739.0
  114.45    3779.5
  114.92    3810.4
  115.19    3829.0
  115.90    3878.5
  115.98    3883.7
  116.10    3892.6
  116.58    3928.0
  116.98    3957.9
  117.23    3977.5
  117.86    4027.0
  117.93    4032.8
  118.07    4044.1
  118.46    4076.5
  118.83    4108.5
  119.03    4126.0
  119.58    4175.5
  119.68    4184.8
  119.77    4193.1
  120.11    4225.0
  120.50    4261.9
  120.63    4274.5
  121.12    4324.0
  121.27    4339.4
  121.27    4339.5
  121.60    4373.5
  122.01    4417.8
  122.06    4423.0
  122.50    4472.5
  122.59    4482.6
  122.71    4496.6
  122.93    4522.0
  123.05    4536.5
  123.34    4571.5
  123.38    4575.9
  123.54    4596.0
  123.70    4616.0
  123.74    4621.0
  124.02    4655.6
  124.13    4670.5
  124.17    4675.8
  124.33    4695.9
  124.51    4720.0
  124.63    4735.7
  124.77    4756.0
  124.87    4769.5
  124.92    4776.1
  125.21    4816.1
  125.23    4819.0
  125.35    4836.4
  125.49    4856.6
  125.57    4868.5
  125.76    4896.6
  125.89    4917.0
  125.90    4918.0
  126.03    4937.1
  126.22    4967.5
  126.28    4977.2
  126.41    4997.5
  126.53    5017.0
  126.54    5017.8
  126.78    5057.7
  126.84    5066.5
  126.91    5078.1
  127.03    5098.3
  127.13    5116.0
  127.15    5118.4
  127.20    5128.3
  127.23    5133.3
  127.25    5135.7
  127.26    5138.2
  127.42    5165.5
  127.56    5190.3
  127.69    5215.0
  127.83    5239.8
  127.96    5264.5
  128.10    5289.3
  128.22    5314.0
  128.29    5326.4
  128.35    5338.8
  128.42    5351.2
  128.48    5363.5
  128.54    5375.9
  128.60    5388.3
  128.63    5394.5
  128.67    5400.7
  128.70    5406.9
  128.73    5413.0
  128.74    5416.0
  128.76    5419.0
  128.77    5422.1
  128.78    5423.6
  128.78    5424.3
  128.78    5425.1
  128.97    5462.5
  129.02    5473.0
  129.20    5512.0
  129.24    5520.0
  129.33    5540.8
  129.42    5561.5
  129.43    5563.8
  129.45    5566.0
  129.55    5588.6
  129.64    5611.0
  129.66    5615.0
  129.75    5635.0
  129.83    5654.9
  129.85    5657.9
  129.86    5661.0
  129.93    5677.6
  130.00    5694.1
  130.03    5702.6
  130.05    5706.8
  130.06    5708.9
  130.07    5711.0
  130.07    5712.3
  130.19    5743.1
  130.26    5761.0
  130.30    5773.4
  130.41    5803.3
  130.44    5811.0
  130.51    5832.7
  130.61    5861.0
  130.61    5861.7
  130.71    5890.3
  130.78    5911.0
  130.81    5918.6
  130.85    5932.6
  130.90    5946.5
  130.92    5953.8
  130.93    5957.4
  130.94    5961.0
  130.98    5973.3
  131.02    5985.6
  131.04    5991.8
  131.05    5998.0
  131.09    6010.2
  131.09    6010.6
  131.09    6011.0
  131.13    6022.9
  131.16    6034.6
  131.18    6040.7
  131.20    6046.8
  131.23    6058.8
  131.23    6059.9
  131.24    6061.0
  131.27    6072.0
  131.30    6082.8
  131.31    6088.8
  131.33    6094.8
  131.36    6106.6
  131.37    6108.8
  131.37    6111.0
  131.43    6130.2
  131.46    6142.0
  131.49    6153.7
  131.50    6157.3
  131.51    6161.0
  131.56    6180.3
  131.59    6193.2
  131.62    6206.0
  131.63    6207.2
  131.63    6208.5
  131.66    6222.6
  131.70    6236.5
  131.72    6243.8
  131.73    6247.4
  131.73    6249.2
  131.73    6251.0
  131.78    6270.5
  131.80    6280.2
  131.83    6290.0
  131.84    6293.5
  131.86    6304.1
  131.89    6314.8
  131.90    6320.1
  131.91    6325.4
  131.93    6330.7
  131.93    6333.3
  131.94    6334.7
  131.94    6336.0
  131.94    6338.0
  131.95    6343.5
  131.96    6347.2
  131.96    6349.1
  131.97    6350.1
  131.97    6351.0
  131.98    6356.0
  131.98    6361.0
  131.99    6366.0
  132.00    6368.5
  132.00    6369.7
  132.00    6371.0
  132.00    6371.0
